*RAS_DATA_START
*RAS_HEADER_START
*DISP_FMT_X "%.2f"
*DISP_FMT_Y "%.0f"
*DISP_FULLSCALE "87951.0000000000"
*DISP_LINE_COLOR "255.0000000000"
*DISP_LINE_STYLE "0.0000000000"
*DISP_LINE_WIDTH "0.2500000000"
*DISP_NOTE "Collected Data-1"
*DISP_OFFSET_Y "0.0000000000"
*DISP_PEAKSEARCH_UNIT_Y "CPS"
*DISP_RANGE_BOTTOM "0.0000000000"
*DISP_RANGE_LEFT "20.0000000000"
*DISP_RANGE_LOGCUTOFF "0.0100000000"
*DISP_RANGE_RIGHT "80.0000000000"
*DISP_RANGE_TOP "87951.0000000000"
*DISP_SCALE_MODE_Y "0.0000000000"
*DISP_TAB_NAME "Theta/2-Theta"
*DISP_TITLE_Y "Intensity"
*DISP_UNIT_Y "CPS"
*DISP_WINDOW_NAME "MSG_MACROENGINE"
*FILE_COMMENT " "
*FILE_MD5 ""
*FILE_MEMO " "
*FILE_OPERATOR "crystal"
*FILE_PART_ID "MEAS_PBEA_00223"
*FILE_SAMPLE "NiO_500C_v1"
*FILE_TYPE "RAS_RAW"
*FILE_USERGROUP "System User"
*FILE_VERSION "1.0000000000"
*HW_ATTACHMENT_ID "ATT1031"
*HW_ATTACHMENT_NAME "6サンプルチェンジャ|ASC-6"
*HW_COUNTER_ID-0 "CUT0025"
*HW_COUNTER_ID-1 "CUT0020"
*HW_COUNTER_ID-2 "CUT0020"
*HW_COUNTER_ID-3 "CMC0021"
*HW_COUNTER_NAME-0 "D/teX Ultra|D/teX Ultra"
*HW_COUNTER_NAME-1 "None|None"
*HW_COUNTER_NAME-2 "None|None"
*HW_COUNTER_NAME-3 "検出器モノクロメータ|Detector monochromator"
*HW_COUNTER_SELECT_NAME "D/teX Ultra|D/teX Ultra"
*HW_GONIOMETER_ID "GON0070"
*HW_GONIOMETER_NAME "MiniFlex 300/600|MiniFlex 300/600"
*HW_GONIOMETER_RADIUS-0 "79.0"
*HW_GONIOMETER_RADIUS-1 "91.5"
*HW_GONIOMETER_RADIUS-2 "150.0"
*HW_GONIOMETER_RADIUS-3 "0"
*HW_GONIOMETER_RADIUS-4 "103.4"
*HW_GONIOMETER_RADIUS-5 "150.0"
*HW_GONIOMETER_RADIUS-6 "46.6"
*HW_GONIOMETER_RADIUS-7 "160.0"
*HW_I_OPT_ID-0 "ISL0021"
*HW_I_OPT_ID-1 "ISO0021"
*HW_I_OPT_NAME-0 "発散スリット|Divergence slit"
*HW_I_OPT_NAME-1 "入射平行スリット|Incident parallel slit"
*HW_R_ATTENUATER_AUTOMODE "0"
*HW_R_OPT_ID-0 "RSS0021"
*HW_R_OPT_ID-1 "RSO0021"
*HW_R_OPT_ID-2 "RRS0021"
*HW_R_OPT_NAME-0 "散乱スリット|Scattering slit"
*HW_R_OPT_NAME-1 "受光平行スリット|Receiving soller slit"
*HW_R_OPT_NAME-2 "受光スリット|Receiving slit"
*HW_SAMPLE_HOLDER_ID "SMP0000"
*HW_SAMPLE_HOLDER_NAME "無し|None"
*HW_XG_CURRENT_MAX "15"
*HW_XG_CURRENT_MIN "2"
*HW_XG_CURRENT_RESOLUTION "1"
*HW_XG_CURRENT_UNIT "mA"
*HW_XG_FOCUS "1mm x 10mm"
*HW_XG_FOCUS_TYPE "Normal"
*HW_XG_ID "1060"
*HW_XG_NAME "300W/600W 封入管-B|300W/600W Sealed tube-B"
*HW_XG_TARGET_ATOMIC_NUMBER "29.0000000000"
*HW_XG_TARGET_NAME "Cu"
*HW_XG_TYPE "Hermetic"
*HW_XG_VOLTAGE_MAX "40"
*HW_XG_VOLTAGE_MIN "20"
*HW_XG_VOLTAGE_RESOLUTION "1"
*HW_XG_VOLTAGE_UNIT "kV"
*HW_XG_WATT_MAX "1"
*HW_XG_WATT_UNIT "kW"
*HW_XG_WAVE_LENGTH_ALPHA1 "1.540593"
*HW_XG_WAVE_LENGTH_ALPHA2 "1.544414"
*HW_XG_WAVE_LENGTH_BETA "1.392250"
*MEAS_COND_AXIS_NAME-0 "Theta/2-Theta"
*MEAS_COND_AXIS_NAME-1 "Spin"
*MEAS_COND_AXIS_NAME-2 "Change"
*MEAS_COND_AXIS_NAME-3 "Soller(inc.)"
*MEAS_COND_AXIS_NAME-4 "IHS"
*MEAS_COND_AXIS_NAME-5 "DS"
*MEAS_COND_AXIS_NAME-6 "SS"
*MEAS_COND_AXIS_NAME-7 "Soller(rec.)"
*MEAS_COND_AXIS_NAME-8 "RS"
*MEAS_COND_AXIS_NAME-9 "Filter"
*MEAS_COND_AXIS_NAME-10 "Monochromator"
*MEAS_COND_AXIS_NAME-11 "PHA"
*MEAS_COND_AXIS_NAME_INTERNAL-0 "TwoThetaTheta"
*MEAS_COND_AXIS_NAME_INTERNAL-1 "Spin"
*MEAS_COND_AXIS_NAME_INTERNAL-2 "Change"
*MEAS_COND_AXIS_NAME_INTERNAL-3 "IncidentSollerSlit"
*MEAS_COND_AXIS_NAME_INTERNAL-4 "IncidentAxdSlit"
*MEAS_COND_AXIS_NAME_INTERNAL-5 "IncidentSlitBox"
*MEAS_COND_AXIS_NAME_INTERNAL-6 "ReceivingSlitBox1"
*MEAS_COND_AXIS_NAME_INTERNAL-7 "ReceivingSollerSlit"
*MEAS_COND_AXIS_NAME_INTERNAL-8 "ReceivingSlitBox2"
*MEAS_COND_AXIS_NAME_INTERNAL-9 "Filter"
*MEAS_COND_AXIS_NAME_INTERNAL-10 "CounterMonochromator"
*MEAS_COND_AXIS_NAME_INTERNAL-11 "PHA"
*MEAS_COND_AXIS_NAME_MAGICNO-0 "268632064.0000000000"
*MEAS_COND_AXIS_NAME_MAGICNO-1 "16842752.0000000000"
*MEAS_COND_AXIS_NAME_MAGICNO-2 "16842752.0000000000"
*MEAS_COND_AXIS_NAME_MAGICNO-3 "20971521.0000000000"
*MEAS_COND_AXIS_NAME_MAGICNO-4 "22020097.0000000000"
*MEAS_COND_AXIS_NAME_MAGICNO-5 "22020097.0000000000"
*MEAS_COND_AXIS_NAME_MAGICNO-6 "23068673.0000000000"
*MEAS_COND_AXIS_NAME_MAGICNO-7 "20971521.0000000000"
*MEAS_COND_AXIS_NAME_MAGICNO-8 "23068673.0000000000"
*MEAS_COND_AXIS_NAME_MAGICNO-9 "20971521.0000000000"
*MEAS_COND_AXIS_NAME_MAGICNO-10 "20971521.0000000000"
*MEAS_COND_AXIS_NAME_MAGICNO-11 "0.0000000000"
*MEAS_COND_AXIS_OFFSET-0 "0.0000000000"
*MEAS_COND_AXIS_OFFSET-1 "-"
*MEAS_COND_AXIS_OFFSET-2 "-"
*MEAS_COND_AXIS_OFFSET-3 "-"
*MEAS_COND_AXIS_OFFSET-4 "-"
*MEAS_COND_AXIS_OFFSET-5 "-"
*MEAS_COND_AXIS_OFFSET-6 "-"
*MEAS_COND_AXIS_OFFSET-7 "-"
*MEAS_COND_AXIS_OFFSET-8 "-"
*MEAS_COND_AXIS_OFFSET-9 "-"
*MEAS_COND_AXIS_OFFSET-10 "-"
*MEAS_COND_AXIS_OFFSET-11 "-"
*MEAS_COND_AXIS_POSITION-0 "12.0000000000"
*MEAS_COND_AXIS_POSITION-1 "0.0000000000"
*MEAS_COND_AXIS_POSITION-2 "4.0000000000"
*MEAS_COND_AXIS_POSITION-3 "5.0deg"
*MEAS_COND_AXIS_POSITION-4 "10.0mm"
*MEAS_COND_AXIS_POSITION-5 "1.250deg"
*MEAS_COND_AXIS_POSITION-6 "13.0mm(Open)"
*MEAS_COND_AXIS_POSITION-7 "5.0deg"
*MEAS_COND_AXIS_POSITION-8 "13.0mm"
*MEAS_COND_AXIS_POSITION-9 "None"
*MEAS_COND_AXIS_POSITION-10 "None"
*MEAS_COND_AXIS_POSITION-11 "35.0000000000"
*MEAS_COND_AXIS_UNIT-0 "deg"
*MEAS_COND_AXIS_UNIT-1 ""
*MEAS_COND_AXIS_UNIT-2 ""
*MEAS_COND_AXIS_UNIT-3 ""
*MEAS_COND_AXIS_UNIT-4 ""
*MEAS_COND_AXIS_UNIT-5 ""
*MEAS_COND_AXIS_UNIT-6 ""
*MEAS_COND_AXIS_UNIT-7 ""
*MEAS_COND_AXIS_UNIT-8 ""
*MEAS_COND_AXIS_UNIT-9 ""
*MEAS_COND_AXIS_UNIT-10 ""
*MEAS_COND_AXIS_UNIT-11 "div"
*MEAS_COND_COUNTER_CNTLOSS_CORR "0.0000000000"
*MEAS_COND_COUNTER_PHABASE "35.0000000000"
*MEAS_COND_COUNTER_PHAWINDOW "15.0000000000"
*MEAS_COND_COUNTER_PHA_UNIT "div"
*MEAS_COND_COUNTER_TAUDIFF "0.2500000000"
*MEAS_COND_COUNTER_TAUINT "0.7500000000"
*MEAS_COND_IRRADIATION_MODE "OFF"
*MEAS_COND_IRRADIATION_WIDTH ""
*MEAS_COND_OPT_ATTR " "
*MEAS_COND_OPT_NAME ""
*MEAS_COND_UNSYMMETRIC_MODE "OFF"
*MEAS_COND_XG_CURRENT "15.0000000000"
*MEAS_COND_XG_VOLTAGE "40.0000000000"
*MEAS_COND_XG_WAVE_TYPE "Ka"
*MEAS_DATA_COUNT "3001.0000000000"
*MEAS_SCAN_AXIS_X "Theta/2-Theta"
*MEAS_SCAN_AXIS_X_INTERNAL "TwoThetaTheta"
*MEAS_SCAN_END_TIME "07/04/23 17:12:17"
*MEAS_SCAN_MODE "CONTINUOUS"
*MEAS_SCAN_MONITOR "0"
*MEAS_SCAN_RESOLUTION_X "0.005"
*MEAS_SCAN_SPEED "1.500"
*MEAS_SCAN_SPEED_UNIT "deg/min"
*MEAS_SCAN_SPEED_USER "1.500"
*MEAS_SCAN_START "20.0000000000"
*MEAS_SCAN_START_TIME "07/04/23 16:28:43"
*MEAS_SCAN_STEP "0.0200000000"
*MEAS_SCAN_STOP "80.0000000000"
*MEAS_SCAN_UNIT_X "deg"
*MEAS_SCAN_UNIT_Y "counts"
*SLIT_SYSTEM "0"
*RAS_HEADER_END
*RAS_INT_START
20.000 5788.000 1.000
20.020 5949.000 1.000
20.040 5870.000 1.000
20.060 5932.000 1.000
20.080 5895.000 1.000
20.100 5943.000 1.000
20.120 5939.000 1.000
20.140 6016.000 1.000
20.160 6034.000 1.000
20.180 5960.000 1.000
20.200 5942.000 1.000
20.220 5999.000 1.000
20.240 6026.000 1.000
20.260 6114.000 1.000
20.280 6010.000 1.000
20.300 6028.000 1.000
20.320 6063.000 1.000
20.340 6079.000 1.000
20.360 5985.000 1.000
20.380 5957.000 1.000
20.400 5869.000 1.000
20.420 5923.000 1.000
20.440 5895.000 1.000
20.460 5977.000 1.000
20.480 6086.000 1.000
20.500 6061.000 1.000
20.520 5959.000 1.000
20.540 5995.000 1.000
20.560 5953.000 1.000
20.580 5996.000 1.000
20.600 5997.000 1.000
20.620 5915.000 1.000
20.640 5995.000 1.000
20.660 5997.000 1.000
20.680 5969.000 1.000
20.700 5972.000 1.000
20.720 5942.000 1.000
20.740 5980.000 1.000
20.760 6117.000 1.000
20.780 5963.000 1.000
20.800 6003.000 1.000
20.820 6033.000 1.000
20.840 6014.000 1.000
20.860 6079.000 1.000
20.880 6016.000 1.000
20.900 5965.000 1.000
20.920 6026.000 1.000
20.940 6008.000 1.000
20.960 6026.000 1.000
20.980 6026.000 1.000
21.000 6109.000 1.000
21.020 6080.000 1.000
21.040 6159.000 1.000
21.060 6141.000 1.000
21.080 5921.000 1.000
21.100 6006.000 1.000
21.120 6068.000 1.000
21.140 5978.000 1.000
21.160 6162.000 1.000
21.180 6131.000 1.000
21.200 6032.000 1.000
21.220 5968.000 1.000
21.240 6060.000 1.000
21.260 6142.000 1.000
21.280 6055.000 1.000
21.300 6048.000 1.000
21.320 6017.000 1.000
21.340 6108.000 1.000
21.360 6119.000 1.000
21.380 6293.000 1.000
21.400 6096.000 1.000
21.420 6060.000 1.000
21.440 6051.000 1.000
21.460 6033.000 1.000
21.480 6157.000 1.000
21.500 6144.000 1.000
21.520 6182.000 1.000
21.540 6091.000 1.000
21.560 6143.000 1.000
21.580 6038.000 1.000
21.600 5973.000 1.000
21.620 6201.000 1.000
21.640 6158.000 1.000
21.660 6118.000 1.000
21.680 6129.000 1.000
21.700 6030.000 1.000
21.720 6108.000 1.000
21.740 6166.000 1.000
21.760 6106.000 1.000
21.780 6065.000 1.000
21.800 6088.000 1.000
21.820 6179.000 1.000
21.840 6169.000 1.000
21.860 6168.000 1.000
21.880 6141.000 1.000
21.900 6118.000 1.000
21.920 6150.000 1.000
21.940 6174.000 1.000
21.960 6164.000 1.000
21.980 6372.000 1.000
22.000 6247.000 1.000
22.020 6214.000 1.000
22.040 6140.000 1.000
22.060 6151.000 1.000
22.080 6137.000 1.000
22.100 6143.000 1.000
22.120 6146.000 1.000
22.140 6240.000 1.000
22.160 6316.000 1.000
22.180 6247.000 1.000
22.200 6061.000 1.000
22.220 6213.000 1.000
22.240 6310.000 1.000
22.260 6177.000 1.000
22.280 6138.000 1.000
22.300 6146.000 1.000
22.320 6051.000 1.000
22.340 6150.000 1.000
22.360 6288.000 1.000
22.380 6139.000 1.000
22.400 6189.000 1.000
22.420 6171.000 1.000
22.440 6166.000 1.000
22.460 6219.000 1.000
22.480 6158.000 1.000
22.500 6369.000 1.000
22.520 6202.000 1.000
22.540 6166.000 1.000
22.560 6057.000 1.000
22.580 6226.000 1.000
22.600 6180.000 1.000
22.620 6336.000 1.000
22.640 6212.000 1.000
22.660 6252.000 1.000
22.680 6219.000 1.000
22.700 6117.000 1.000
22.720 6240.000 1.000
22.740 6246.000 1.000
22.760 6224.000 1.000
22.780 6267.000 1.000
22.800 6309.000 1.000
22.820 6227.000 1.000
22.840 6221.000 1.000
22.860 6214.000 1.000
22.880 6130.000 1.000
22.900 6291.000 1.000
22.920 6128.000 1.000
22.940 6216.000 1.000
22.960 6282.000 1.000
22.980 6245.000 1.000
23.000 6178.000 1.000
23.020 6119.000 1.000
23.040 6278.000 1.000
23.060 6233.000 1.000
23.080 6319.000 1.000
23.100 6310.000 1.000
23.120 6283.000 1.000
23.140 6222.000 1.000
23.160 6210.000 1.000
23.180 6173.000 1.000
23.200 6064.000 1.000
23.220 6156.000 1.000
23.240 6179.000 1.000
23.260 6221.000 1.000
23.280 6190.000 1.000
23.300 6300.000 1.000
23.320 6254.000 1.000
23.340 6212.000 1.000
23.360 6197.000 1.000
23.380 6062.000 1.000
23.400 6254.000 1.000
23.420 6264.000 1.000
23.440 6285.000 1.000
23.460 6283.000 1.000
23.480 6281.000 1.000
23.500 6249.000 1.000
23.520 6292.000 1.000
23.540 6145.000 1.000
23.560 6326.000 1.000
23.580 6260.000 1.000
23.600 6259.000 1.000
23.620 6369.000 1.000
23.640 6261.000 1.000
23.660 6382.000 1.000
23.680 6189.000 1.000
23.700 6355.000 1.000
23.720 6280.000 1.000
23.740 6263.000 1.000
23.760 6336.000 1.000
23.780 6268.000 1.000
23.800 6322.000 1.000
23.820 6144.000 1.000
23.840 6244.000 1.000
23.860 6157.000 1.000
23.880 6157.000 1.000
23.900 6258.000 1.000
23.920 6201.000 1.000
23.940 6189.000 1.000
23.960 6236.000 1.000
23.980 6263.000 1.000
24.000 6172.000 1.000
24.020 6203.000 1.000
24.040 6209.000 1.000
24.060 6257.000 1.000
24.080 6264.000 1.000
24.100 6192.000 1.000
24.120 6260.000 1.000
24.140 6197.000 1.000
24.160 6234.000 1.000
24.180 6367.000 1.000
24.200 6189.000 1.000
24.220 6214.000 1.000
24.240 6289.000 1.000
24.260 6317.000 1.000
24.280 6313.000 1.000
24.300 6235.000 1.000
24.320 6381.000 1.000
24.340 6232.000 1.000
24.360 6359.000 1.000
24.380 6323.000 1.000
24.400 6254.000 1.000
24.420 6208.000 1.000
24.440 6377.000 1.000
24.460 6270.000 1.000
24.480 6245.000 1.000
24.500 6164.000 1.000
24.520 6294.000 1.000
24.540 6252.000 1.000
24.560 6353.000 1.000
24.580 6382.000 1.000
24.600 6322.000 1.000
24.620 6187.000 1.000
24.640 6265.000 1.000
24.660 6344.000 1.000
24.680 6147.000 1.000
24.700 6229.000 1.000
24.720 6194.000 1.000
24.740 6249.000 1.000
24.760 6242.000 1.000
24.780 6316.000 1.000
24.800 6319.000 1.000
24.820 6288.000 1.000
24.840 6251.000 1.000
24.860 6433.000 1.000
24.880 6358.000 1.000
24.900 6323.000 1.000
24.920 6277.000 1.000
24.940 6239.000 1.000
24.960 6270.000 1.000
24.980 6322.000 1.000
25.000 6222.000 1.000
25.020 6207.000 1.000
25.040 6389.000 1.000
25.060 6270.000 1.000
25.080 6285.000 1.000
25.100 6288.000 1.000
25.120 6375.000 1.000
25.140 6293.000 1.000
25.160 6229.000 1.000
25.180 6286.000 1.000
25.200 6374.000 1.000
25.220 6406.000 1.000
25.240 6421.000 1.000
25.260 6264.000 1.000
25.280 6219.000 1.000
25.300 6406.000 1.000
25.320 6448.000 1.000
25.340 6237.000 1.000
25.360 6417.000 1.000
25.380 6226.000 1.000
25.400 6223.000 1.000
25.420 6311.000 1.000
25.440 6418.000 1.000
25.460 6382.000 1.000
25.480 6437.000 1.000
25.500 6359.000 1.000
25.520 6229.000 1.000
25.540 6241.000 1.000
25.560 6195.000 1.000
25.580 6315.000 1.000
25.600 6199.000 1.000
25.620 6297.000 1.000
25.640 6258.000 1.000
25.660 6346.000 1.000
25.680 6213.000 1.000
25.700 6259.000 1.000
25.720 6266.000 1.000
25.740 6201.000 1.000
25.760 6294.000 1.000
25.780 6260.000 1.000
25.800 6208.000 1.000
25.820 6326.000 1.000
25.840 6365.000 1.000
25.860 6322.000 1.000
25.880 6243.000 1.000
25.900 6255.000 1.000
25.920 6338.000 1.000
25.940 6256.000 1.000
25.960 6277.000 1.000
25.980 6334.000 1.000
26.000 6348.000 1.000
26.020 6339.000 1.000
26.040 6333.000 1.000
26.060 6449.000 1.000
26.080 6328.000 1.000
26.100 6396.000 1.000
26.120 6477.000 1.000
26.140 6188.000 1.000
26.160 6234.000 1.000
26.180 6293.000 1.000
26.200 6248.000 1.000
26.220 6390.000 1.000
26.240 6397.000 1.000
26.260 6227.000 1.000
26.280 6252.000 1.000
26.300 6194.000 1.000
26.320 6313.000 1.000
26.340 6214.000 1.000
26.360 6332.000 1.000
26.380 6345.000 1.000
26.400 6344.000 1.000
26.420 6369.000 1.000
26.440 6330.000 1.000
26.460 6297.000 1.000
26.480 6274.000 1.000
26.500 6194.000 1.000
26.520 6208.000 1.000
26.540 6391.000 1.000
26.560 6198.000 1.000
26.580 6361.000 1.000
26.600 6269.000 1.000
26.620 6239.000 1.000
26.640 6322.000 1.000
26.660 6179.000 1.000
26.680 6251.000 1.000
26.700 6332.000 1.000
26.720 6388.000 1.000
26.740 6344.000 1.000
26.760 6328.000 1.000
26.780 6430.000 1.000
26.800 6258.000 1.000
26.820 6251.000 1.000
26.840 6191.000 1.000
26.860 6323.000 1.000
26.880 6240.000 1.000
26.900 6278.000 1.000
26.920 6222.000 1.000
26.940 6162.000 1.000
26.960 6235.000 1.000
26.980 6251.000 1.000
27.000 6417.000 1.000
27.020 6363.000 1.000
27.040 6450.000 1.000
27.060 6431.000 1.000
27.080 6314.000 1.000
27.100 6226.000 1.000
27.120 6244.000 1.000
27.140 6267.000 1.000
27.160 6294.000 1.000
27.180 6327.000 1.000
27.200 6432.000 1.000
27.220 6317.000 1.000
27.240 6306.000 1.000
27.260 6314.000 1.000
27.280 6354.000 1.000
27.300 6342.000 1.000
27.320 6345.000 1.000
27.340 6363.000 1.000
27.360 6241.000 1.000
27.380 6181.000 1.000
27.400 6203.000 1.000
27.420 6339.000 1.000
27.440 6341.000 1.000
27.460 6316.000 1.000
27.480 6300.000 1.000
27.500 6398.000 1.000
27.520 6317.000 1.000
27.540 6367.000 1.000
27.560 6334.000 1.000
27.580 6246.000 1.000
27.600 6300.000 1.000
27.620 6309.000 1.000
27.640 6359.000 1.000
27.660 6216.000 1.000
27.680 6346.000 1.000
27.700 6418.000 1.000
27.720 6310.000 1.000
27.740 6304.000 1.000
27.760 6358.000 1.000
27.780 6320.000 1.000
27.800 6314.000 1.000
27.820 6157.000 1.000
27.840 6245.000 1.000
27.860 6373.000 1.000
27.880 6361.000 1.000
27.900 6222.000 1.000
27.920 6329.000 1.000
27.940 6285.000 1.000
27.960 6379.000 1.000
27.980 6363.000 1.000
28.000 6372.000 1.000
28.020 6348.000 1.000
28.040 6334.000 1.000
28.060 6264.000 1.000
28.080 6298.000 1.000
28.100 6392.000 1.000
28.120 6399.000 1.000
28.140 6217.000 1.000
28.160 6252.000 1.000
28.180 6302.000 1.000
28.200 6296.000 1.000
28.220 6268.000 1.000
28.240 6281.000 1.000
28.260 6286.000 1.000
28.280 6414.000 1.000
28.300 6471.000 1.000
28.320 6286.000 1.000
28.340 6355.000 1.000
28.360 6424.000 1.000
28.380 6252.000 1.000
28.400 6273.000 1.000
28.420 6255.000 1.000
28.440 6363.000 1.000
28.460 6413.000 1.000
28.480 6309.000 1.000
28.500 6193.000 1.000
28.520 6373.000 1.000
28.540 6396.000 1.000
28.560 6298.000 1.000
28.580 6315.000 1.000
28.600 6331.000 1.000
28.620 6406.000 1.000
28.640 6291.000 1.000
28.660 6345.000 1.000
28.680 6361.000 1.000
28.700 6214.000 1.000
28.720 6294.000 1.000
28.740 6360.000 1.000
28.760 6314.000 1.000
28.780 6340.000 1.000
28.800 6199.000 1.000
28.820 6261.000 1.000
28.840 6333.000 1.000
28.860 6381.000 1.000
28.880 6345.000 1.000
28.900 6296.000 1.000
28.920 6297.000 1.000
28.940 6407.000 1.000
28.960 6337.000 1.000
28.980 6301.000 1.000
29.000 6327.000 1.000
29.020 6443.000 1.000
29.040 6410.000 1.000
29.060 6247.000 1.000
29.080 6336.000 1.000
29.100 6295.000 1.000
29.120 6327.000 1.000
29.140 6215.000 1.000
29.160 6302.000 1.000
29.180 6308.000 1.000
29.200 6318.000 1.000
29.220 6272.000 1.000
29.240 6244.000 1.000
29.260 6325.000 1.000
29.280 6330.000 1.000
29.300 6378.000 1.000
29.320 6468.000 1.000
29.340 6382.000 1.000
29.360 6375.000 1.000
29.380 6370.000 1.000
29.400 6381.000 1.000
29.420 6348.000 1.000
29.440 6267.000 1.000
29.460 6362.000 1.000
29.480 6288.000 1.000
29.500 6401.000 1.000
29.520 6228.000 1.000
29.540 6318.000 1.000
29.560 6293.000 1.000
29.580 6398.000 1.000
29.600 6320.000 1.000
29.620 6346.000 1.000
29.640 6295.000 1.000
29.660 6358.000 1.000
29.680 6331.000 1.000
29.700 6262.000 1.000
29.720 6406.000 1.000
29.740 6382.000 1.000
29.760 6334.000 1.000
29.780 6250.000 1.000
29.800 6319.000 1.000
29.820 6434.000 1.000
29.840 6443.000 1.000
29.860 6282.000 1.000
29.880 6267.000 1.000
29.900 6212.000 1.000
29.920 6196.000 1.000
29.940 6333.000 1.000
29.960 6262.000 1.000
29.980 6344.000 1.000
30.000 6400.000 1.000
30.020 6391.000 1.000
30.040 6285.000 1.000
30.060 6272.000 1.000
30.080 6279.000 1.000
30.100 6219.000 1.000
30.120 6188.000 1.000
30.140 6279.000 1.000
30.160 6336.000 1.000
30.180 6339.000 1.000
30.200 6296.000 1.000
30.220 6368.000 1.000
30.240 6375.000 1.000
30.260 6394.000 1.000
30.280 6304.000 1.000
30.300 6234.000 1.000
30.320 6379.000 1.000
30.340 6452.000 1.000
30.360 6442.000 1.000
30.380 6323.000 1.000
30.400 6373.000 1.000
30.420 6174.000 1.000
30.440 6312.000 1.000
30.460 6275.000 1.000
30.480 6322.000 1.000
30.500 6264.000 1.000
30.520 6350.000 1.000
30.540 6188.000 1.000
30.560 6211.000 1.000
30.580 6364.000 1.000
30.600 6238.000 1.000
30.620 6274.000 1.000
30.640 6337.000 1.000
30.660 6282.000 1.000
30.680 6319.000 1.000
30.700 6300.000 1.000
30.720 6284.000 1.000
30.740 6390.000 1.000
30.760 6372.000 1.000
30.780 6243.000 1.000
30.800 6315.000 1.000
30.820 6328.000 1.000
30.840 6332.000 1.000
30.860 6381.000 1.000
30.880 6418.000 1.000
30.900 6369.000 1.000
30.920 6398.000 1.000
30.940 6374.000 1.000
30.960 6277.000 1.000
30.980 6188.000 1.000
31.000 6376.000 1.000
31.020 6482.000 1.000
31.040 6450.000 1.000
31.060 6409.000 1.000
31.080 6352.000 1.000
31.100 6190.000 1.000
31.120 6450.000 1.000
31.140 6468.000 1.000
31.160 6387.000 1.000
31.180 6269.000 1.000
31.200 6378.000 1.000
31.220 6350.000 1.000
31.240 6238.000 1.000
31.260 6445.000 1.000
31.280 6294.000 1.000
31.300 6346.000 1.000
31.320 6223.000 1.000
31.340 6200.000 1.000
31.360 6323.000 1.000
31.380 6302.000 1.000
31.400 6386.000 1.000
31.420 6416.000 1.000
31.440 6309.000 1.000
31.460 6343.000 1.000
31.480 6384.000 1.000
31.500 6395.000 1.000
31.520 6336.000 1.000
31.540 6275.000 1.000
31.560 6387.000 1.000
31.580 6255.000 1.000
31.600 6227.000 1.000
31.620 6365.000 1.000
31.640 6499.000 1.000
31.660 6358.000 1.000
31.680 6438.000 1.000
31.700 6381.000 1.000
31.720 6312.000 1.000
31.740 6314.000 1.000
31.760 6257.000 1.000
31.780 6365.000 1.000
31.800 6298.000 1.000
31.820 6245.000 1.000
31.840 6350.000 1.000
31.860 6364.000 1.000
31.880 6362.000 1.000
31.900 6299.000 1.000
31.920 6411.000 1.000
31.940 6314.000 1.000
31.960 6296.000 1.000
31.980 6298.000 1.000
32.000 6350.000 1.000
32.020 6379.000 1.000
32.040 6352.000 1.000
32.060 6344.000 1.000
32.080 6227.000 1.000
32.100 6314.000 1.000
32.120 6390.000 1.000
32.140 6349.000 1.000
32.160 6260.000 1.000
32.180 6345.000 1.000
32.200 6464.000 1.000
32.220 6465.000 1.000
32.240 6292.000 1.000
32.260 6336.000 1.000
32.280 6297.000 1.000
32.300 6324.000 1.000
32.320 6428.000 1.000
32.340 6444.000 1.000
32.360 6315.000 1.000
